# electron energy loss
# with local fields
# testparticle  lda                 
# npwmat = 169  npwwfn = 169  nbands = 100  lomo =   1  nkibz =2048  nkbz =2048
# energy range   0.00 20.00 [eV]
# lorentzian broadening = 0.0010 [eV]
# dsf factor     0.135303 [a.u.]
# G = (  0,  0,  0) [r.l.u.]
# G = ( 0.000000, 0.000000, 0.000000) [c.c.]
# G = ( 0.000000, 0.000000, 0.000000) [c.c. units of 2pi/a =  0.612217 a.u.]
# q = ( 0.375000, 0.375000, 0.375000) [r.l.u.]
# q = ( 0.229581, 0.229581, 0.229581) [c.c.]
# q = ( 0.375000, 0.375000, 0.375000) [c.c. units of 2pi/a =  0.612217 a.u.]
# omega         eel
# Gaussian absolute broadening  0.42 [eV]
  0.000  1.8782e-04  
  0.100  2.1355e-04  
  0.200  2.4322e-04  
  0.300  2.7734e-04  
  0.400  3.1646e-04  
  0.500  3.6138e-04  
  0.600  4.1332e-04  
  0.700  4.7437e-04  
  0.800  5.4803e-04  
  0.900  6.3988e-04  
  1.000  7.5813e-04  
  1.100  9.1384e-04  
  1.200  1.1206e-03  
  1.300  1.3931e-03  
  1.400  1.7458e-03  
  1.500  2.1893e-03  
  1.600  2.7283e-03  
  1.700  3.3585e-03  
  1.800  4.0655e-03  
  1.900  4.8248e-03  
  2.000  5.6040e-03  
  2.100  6.3675e-03  
  2.200  7.0825e-03  
  2.300  7.7259e-03  
  2.400  8.2897e-03  
  2.500  8.7846e-03  
  2.600  9.2389e-03  
  2.700  9.6950e-03  
  2.800  1.0203e-02  
  2.900  1.0814e-02  
  3.000  1.1575e-02  
  3.100  1.2529e-02  
  3.200  1.3705e-02  
  3.300  1.5126e-02  
  3.400  1.6797e-02  
  3.500  1.8702e-02  
  3.600  2.0801e-02  
  3.700  2.3032e-02  
  3.800  2.5312e-02  
  3.900  2.7556e-02  
  4.000  2.9687e-02  
  4.100  3.1654e-02  
  4.200  3.3441e-02  
  4.300  3.5065e-02  
  4.400  3.6569e-02  
  4.500  3.8009e-02  
  4.600  3.9437e-02  
  4.700  4.0893e-02  
  4.800  4.2396e-02  
  4.900  4.3945e-02  
  5.000  4.5532e-02  
  5.100  4.7144e-02  
  5.200  4.8779e-02  
  5.300  5.0450e-02  
  5.400  5.2189e-02  
  5.500  5.4044e-02  
  5.600  5.6068e-02  
  5.700  5.8310e-02  
  5.800  6.0802e-02  
  5.900  6.3549e-02  
  6.000  6.6526e-02  
  6.100  6.9683e-02  
  6.200  7.2957e-02  
  6.300  7.6287e-02  
  6.400  7.9627e-02  
  6.500  8.2955e-02  
  6.600  8.6271e-02  
  6.700  8.9593e-02  
  6.800  9.2947e-02  
  6.900  9.6351e-02  
  7.000  9.9816e-02  
  7.100  1.0334e-01  
  7.200  1.0691e-01  
  7.300  1.1052e-01  
  7.400  1.1416e-01  
  7.500  1.1780e-01  
  7.600  1.2144e-01  
  7.700  1.2505e-01  
  7.800  1.2862e-01  
  7.900  1.3213e-01  
  8.000  1.3557e-01  
  8.100  1.3893e-01  
  8.200  1.4225e-01  
  8.300  1.4556e-01  
  8.400  1.4891e-01  
  8.500  1.5238e-01  
  8.600  1.5601e-01  
  8.700  1.5986e-01  
  8.800  1.6394e-01  
  8.900  1.6828e-01  
  9.000  1.7289e-01  
  9.100  1.7777e-01  
  9.200  1.8293e-01  
  9.300  1.8833e-01  
  9.400  1.9396e-01  
  9.500  1.9976e-01  
  9.600  2.0570e-01  
  9.700  2.1171e-01  
  9.800  2.1779e-01  
  9.900  2.2392e-01  
 10.000  2.3014e-01  
 10.100  2.3650e-01  
 10.200  2.4308e-01  
 10.300  2.4997e-01  
 10.400  2.5724e-01  
 10.500  2.6496e-01  
 10.600  2.7314e-01  
 10.700  2.8180e-01  
 10.800  2.9091e-01  
 10.900  3.0044e-01  
 11.000  3.1034e-01  
 11.100  3.2055e-01  
 11.200  3.3103e-01  
 11.300  3.4174e-01  
 11.400  3.5268e-01  
 11.500  3.6385e-01  
 11.600  3.7531e-01  
 11.700  3.8713e-01  
 11.800  3.9941e-01  
 11.900  4.1231e-01  
 12.000  4.2595e-01  
 12.100  4.4048e-01  
 12.200  4.5600e-01  
 12.300  4.7256e-01  
 12.400  4.9016e-01  
 12.500  5.0871e-01  
 12.600  5.2805e-01  
 12.700  5.4794e-01  
 12.800  5.6811e-01  
 12.900  5.8828e-01  
 13.000  6.0819e-01  
 13.100  6.2761e-01  
 13.200  6.4640e-01  
 13.300  6.6450e-01  
 13.400  6.8195e-01  
 13.500  6.9884e-01  
 13.600  7.1536e-01  
 13.700  7.3174e-01  
 13.800  7.4825e-01  
 13.900  7.6516e-01  
 14.000  7.8275e-01  
 14.100  8.0129e-01  
 14.200  8.2104e-01  
 14.300  8.4225e-01  
 14.400  8.6516e-01  
 14.500  8.8997e-01  
 14.600  9.1689e-01  
 14.700  9.4608e-01  
 14.800  9.7772e-01  
 14.900  1.0119e+00  
 15.000  1.0488e+00  
 15.100  1.0884e+00  
 15.200  1.1309e+00  
 15.300  1.1763e+00  
 15.400  1.2247e+00  
 15.500  1.2761e+00  
 15.600  1.3309e+00  
 15.700  1.3892e+00  
 15.800  1.4512e+00  
 15.900  1.5173e+00  
 16.000  1.5878e+00  
 16.100  1.6630e+00  
 16.200  1.7433e+00  
 16.300  1.8288e+00  
 16.400  1.9198e+00  
 16.500  2.0161e+00  
 16.600  2.1177e+00  
 16.700  2.2244e+00  
 16.800  2.3355e+00  
 16.900  2.4504e+00  
 17.000  2.5684e+00  
 17.100  2.6882e+00  
 17.200  2.8088e+00  
 17.300  2.9288e+00  
 17.400  3.0467e+00  
 17.500  3.1607e+00  
 17.600  3.2693e+00  
 17.700  3.3707e+00  
 17.800  3.4632e+00  
 17.900  3.5449e+00  
 18.000  3.6143e+00  
 18.100  3.6699e+00  
 18.200  3.7102e+00  
 18.300  3.7342e+00  
 18.400  3.7412e+00  
 18.500  3.7305e+00  
 18.600  3.7024e+00  
 18.700  3.6570e+00  
 18.800  3.5952e+00  
 18.900  3.5183e+00  
 19.000  3.4278e+00  
 19.100  3.3255e+00  
 19.200  3.2134e+00  
 19.300  3.0937e+00  
 19.400  2.9685e+00  
 19.500  2.8398e+00  
 19.600  2.7096e+00  
 19.700  2.5793e+00  
 19.800  2.4507e+00  
 19.900  2.3247e+00  
 20.000  2.2025e+00  
 20.100  2.0846e+00  
 20.200  1.9716e+00  
 20.300  1.8637e+00  
 20.400  1.7612e+00  
 20.500  1.6640e+00  
 20.600  1.5720e+00  
 20.700  1.4851e+00  
 20.800  1.4030e+00  
 20.900  1.3255e+00  
 21.000  1.2525e+00  
 21.100  1.1835e+00  
 21.200  1.1184e+00  
 21.300  1.0570e+00  
 21.400  9.9899e-01  
 21.500  9.4425e-01  
 21.600  8.9256e-01  
 21.700  8.4377e-01  
 21.800  7.9772e-01  
 21.900  7.5426e-01  
 22.000  7.1327e-01  
 22.100  6.7462e-01  
 22.200  6.3822e-01  
 22.300  6.0394e-01  
 22.400  5.7169e-01  
 22.500  5.4138e-01  
 22.600  5.1292e-01  
 22.700  4.8621e-01  
 22.800  4.6117e-01  
 22.900  4.3771e-01  
 23.000  4.1574e-01  
 23.100  3.9519e-01  
 23.200  3.7596e-01  
 23.300  3.5798e-01  
 23.400  3.4116e-01  
 23.500  3.2543e-01  
 23.600  3.1072e-01  
 23.700  2.9695e-01  
 23.800  2.8406e-01  
 23.900  2.7197e-01  
 24.000  2.6064e-01  
 24.100  2.5001e-01  
 24.200  2.4002e-01  
 24.300  2.3062e-01  
 24.400  2.2177e-01  
 24.500  2.1343e-01  
 24.600  2.0556e-01  
 24.700  1.9813e-01  
 24.800  1.9110e-01  
 24.900  1.8444e-01  
 25.000  1.7813e-01  
 25.100  1.7214e-01  
 25.200  1.6646e-01  
 25.300  1.6106e-01  
 25.400  1.5592e-01  
 25.500  1.5104e-01  
 25.600  1.4638e-01  
 25.700  1.4195e-01  
 25.800  1.3772e-01  
 25.900  1.3369e-01  
 26.000  1.2984e-01  
 26.100  1.2617e-01  
 26.200  1.2267e-01  
 26.300  1.1932e-01  
 26.400  1.1613e-01  
 26.500  1.1307e-01  
 26.600  1.1015e-01  
 26.700  1.0736e-01  
 26.800  1.0469e-01  
 26.900  1.0214e-01  
 27.000  9.9694e-02  
 27.100  9.7353e-02  
 27.200  9.5110e-02  
 27.300  9.2961e-02  
 27.400  9.0899e-02  
 27.500  8.8920e-02  
 27.600  8.7020e-02  
 27.700  8.5193e-02  
 27.800  8.3436e-02  
 27.900  8.1745e-02  
 28.000  8.0116e-02  
 28.100  7.8546e-02  
 28.200  7.7030e-02  
 28.300  7.5566e-02  
 28.400  7.4152e-02  
 28.500  7.2783e-02  
 28.600  7.1458e-02  
 28.700  7.0173e-02  
 28.800  6.8927e-02  
 28.900  6.7718e-02  
 29.000  6.6544e-02  
 29.100  6.5403e-02  
 29.200  6.4294e-02  
 29.300  6.3215e-02  
 29.400  6.2165e-02  
 29.500  6.1144e-02  
 29.600  6.0149e-02  
 29.700  5.9181e-02  
 29.800  5.8238e-02  
 29.900  5.7319e-02  
 30.000  5.6425e-02  
 30.100  5.5554e-02  
 30.200  5.4707e-02  
 30.300  5.3882e-02  
 30.400  5.3078e-02  
 30.500  5.2296e-02  
 30.600  5.1535e-02  
 30.700  5.0795e-02  
 30.800  5.0075e-02  
 30.900  4.9374e-02  
 31.000  4.8692e-02  
 31.100  4.8029e-02  
 31.200  4.7384e-02  
 31.300  4.6757e-02  
 31.400  4.6148e-02  
 31.500  4.5555e-02  
 31.600  4.4978e-02  
 31.700  4.4417e-02  
 31.800  4.3871e-02  
 31.900  4.3340e-02  
 32.000  4.2823e-02  
 32.100  4.2320e-02  
 32.200  4.1830e-02  
 32.300  4.1353e-02  
 32.400  4.0889e-02  
 32.500  4.0437e-02  
 32.600  3.9998e-02  
 32.700  3.9569e-02  
 32.800  3.9152e-02  
 32.900  3.8746e-02  
 33.000  3.8350e-02  
 33.100  3.7964e-02  
 33.200  3.7588e-02  
 33.300  3.7221e-02  
 33.400  3.6862e-02  
 33.500  3.6513e-02  
 33.600  3.6171e-02  
 33.700  3.5837e-02  
 33.800  3.5511e-02  
 33.900  3.5192e-02  
 34.000  3.4880e-02  
 34.100  3.4575e-02  
 34.200  3.4276e-02  
 34.300  3.3983e-02  
 34.400  3.3697e-02  
 34.500  3.3416e-02  
 34.600  3.3141e-02  
 34.700  3.2871e-02  
 34.800  3.2606e-02  
 34.900  3.2346e-02  
 35.000  3.2090e-02  
 35.100  3.1839e-02  
 35.200  3.1592e-02  
 35.300  3.1349e-02  
 35.400  3.1110e-02  
 35.500  3.0875e-02  
 35.600  3.0643e-02  
 35.700  3.0414e-02  
 35.800  3.0189e-02  
 35.900  2.9966e-02  
 36.000  2.9746e-02  
 36.100  2.9529e-02  
 36.200  2.9315e-02  
 36.300  2.9102e-02  
 36.400  2.8893e-02  
 36.500  2.8685e-02  
 36.600  2.8479e-02  
 36.700  2.8276e-02  
 36.800  2.8074e-02  
 36.900  2.7875e-02  
 37.000  2.7677e-02  
 37.100  2.7482e-02  
 37.200  2.7288e-02  
 37.300  2.7096e-02  
 37.400  2.6905e-02  
 37.500  2.6717e-02  
 37.600  2.6530e-02  
 37.700  2.6346e-02  
 37.800  2.6162e-02  
 37.900  2.5981e-02  
 38.000  2.5802e-02  
 38.100  2.5624e-02  
 38.200  2.5448e-02  
 38.300  2.5274e-02  
 38.400  2.5101e-02  
 38.500  2.4930e-02  
 38.600  2.4762e-02  
 38.700  2.4595e-02  
 38.800  2.4431e-02  
 38.900  2.4270e-02  
 39.000  2.4114e-02  
 39.100  2.3962e-02  
 39.200  2.3816e-02  
 39.300  2.3679e-02  
 39.400  2.3551e-02  
 39.500  2.3434e-02  
 39.600  2.3327e-02  
 39.700  2.3232e-02  
 39.800  2.3149e-02  
 39.900  2.3076e-02  
 40.000  2.3012e-02  
