# macroscopic dielectric function
# with local fields
# testparticle  RPA                 
# npwmat =  201  npwwfn =  821  nbands =   50  lomo =    1  nkibz =  320  nkbz = 3481
# energy range   0.00 40.00 [eV]
# lorentzian broadening = 0.2000 [eV]
# dsf factor     0.000000 [a.u.] 
# unit cell volume    233.795929 [a.u.] 
# G = (  0,  0,  0) [r.l.u.]
# G = ( 0.000000, 0.000000, 0.000000) [c.c.]
# G = ( 0.000000, 0.000000, 0.000000) [c.c. units of 2pi/a =  0.959379 a.u.]
# q = ( 0.000100, 0.000000, 0.000000) [r.l.u.]
# q = ( 0.000136, 0.000078, 0.000000) [c.c.]
# q = ( 0.000141, 0.000082, 0.000000) [c.c. units of 2pi/a =  0.959379 a.u.]
# omega       eps_1       eps_2
   0.0000000  0.2419E+02  0.7618E-03
   0.2000000  0.2228E+02  0.1010E+02
   0.4000000  0.9878E+01  0.1338E+02
   0.6000000  0.7707E+01  0.9059E+01
   0.8000000  0.5578E+01  0.8818E+01
   1.0000000  0.4500E+01  0.6189E+01
   1.1999999  0.4558E+01  0.6267E+01
   1.4000000  0.3631E+01  0.5255E+01
   1.6000000  0.3898E+01  0.4771E+01
   1.8000001  0.3710E+01  0.4675E+01
   2.0000000  0.3362E+01  0.4264E+01
   2.2000000  0.3684E+01  0.4050E+01
   2.3999999  0.3397E+01  0.4222E+01
   2.5999999  0.3268E+01  0.3935E+01
   2.8000000  0.3586E+01  0.4063E+01
   3.0000000  0.3191E+01  0.4380E+01
   3.2000000  0.3247E+01  0.4154E+01
   3.3999999  0.3385E+01  0.4941E+01
   3.6000001  0.2779E+01  0.5056E+01
   3.8000000  0.2575E+01  0.5933E+01
   4.0000000  0.1052E+01  0.6689E+01
   4.1999998 -0.8002E+00  0.5758E+01
   4.4000001 -0.1307E+01  0.4411E+01
   4.5999999 -0.1346E+01  0.3463E+01
   4.7999997 -0.1222E+01  0.2706E+01
   5.0000000 -0.9854E+00  0.2172E+01
   5.1999998 -0.7935E+00  0.1818E+01
   5.4000001 -0.6054E+00  0.1503E+01
   5.5999999 -0.3885E+00  0.1235E+01
   5.8000002 -0.2224E+00  0.1072E+01
   6.0000000 -0.6337E-01  0.9136E+00
   6.1999998  0.9040E-01  0.7633E+00
   6.4000001  0.2403E+00  0.6860E+00
   6.5999999  0.3589E+00  0.5884E+00
   6.7999997  0.4769E+00  0.5117E+00
   7.0000000  0.6056E+00  0.4499E+00
   7.2000003  0.6910E+00  0.4046E+00
   7.3999996  0.7975E+00  0.3516E+00
   7.5999999  0.8898E+00  0.3143E+00
   7.7999997  0.9815E+00  0.2924E+00
   8.0000000  0.1059E+01  0.2534E+00
   8.1999998  0.1149E+01  0.2342E+00
   8.3999996  0.1226E+01  0.2141E+00
   8.6000004  0.1300E+01  0.1992E+00
   8.8000002  0.1381E+01  0.1794E+00
   9.0000000  0.1460E+01  0.1748E+00
   9.1999998  0.1535E+01  0.1615E+00
   9.4000006  0.1616E+01  0.1547E+00
   9.5999994  0.1701E+01  0.1505E+00
   9.8000002  0.1785E+01  0.1514E+00
  10.0000000  0.1881E+01  0.1494E+00
  10.1999998  0.1984E+01  0.1578E+00
  10.3999996  0.2099E+01  0.1730E+00
  10.6000004  0.2228E+01  0.2051E+00
  10.8000002  0.2362E+01  0.2579E+00
  11.0000000  0.2502E+01  0.3279E+00
  11.1999998  0.2684E+01  0.4220E+00
  11.3999996  0.2889E+01  0.6137E+00
  11.6000004  0.2968E+01  0.9697E+00
  11.7999992  0.2876E+01  0.1205E+01
  12.0000000  0.2786E+01  0.1367E+01
  12.1999998  0.2728E+01  0.1477E+01
  12.3999996  0.2671E+01  0.1592E+01
  12.5999994  0.2654E+01  0.1704E+01
  12.8000002  0.2622E+01  0.1808E+01
  13.0000000  0.2601E+01  0.1949E+01
  13.1999998  0.2577E+01  0.2102E+01
  13.4000006  0.2571E+01  0.2277E+01
  13.5999994  0.2506E+01  0.2520E+01
  13.8000002  0.2478E+01  0.2817E+01
  14.0000000  0.2248E+01  0.3283E+01
  14.1999989  0.1651E+01  0.3733E+01
  14.4000006  0.8076E+00  0.3602E+01
  14.6000004  0.4377E+00  0.3209E+01
  14.7999992  0.2056E+00  0.2861E+01
  15.0000010  0.6785E-01  0.2642E+01
  15.1999998 -0.1864E-01  0.2336E+01
  15.3999996 -0.5830E-01  0.2175E+01
  15.5999994 -0.9264E-01  0.1895E+01
  15.8000002  0.1707E-02  0.1753E+01
  16.0000000 -0.2659E-01  0.1665E+01
  16.1999989  0.8344E-01  0.1470E+01
  16.3999996  0.1741E+00  0.1541E+01
  16.6000004  0.3611E-01  0.1497E+01
  16.7999992  0.9406E-01  0.1332E+01
  17.0000000  0.1487E+00  0.1357E+01
  17.2000008  0.7403E-01  0.1324E+01
  17.3999996  0.7346E-01  0.1198E+01
  17.6000004  0.1472E+00  0.1160E+01
  17.7999992  0.1196E+00  0.1204E+01
  18.0000000  0.3568E-01  0.1083E+01
  18.2000008  0.1079E+00  0.9872E+00
  18.3999996  0.1624E+00  0.9989E+00
  18.5999985  0.9061E-01  0.9971E+00
  18.8000011  0.9273E-01  0.8716E+00
  19.0000000  0.1582E+00  0.8293E+00
  19.1999989  0.1907E+00  0.8442E+00
  19.4000015  0.1318E+00  0.8290E+00
  19.6000004  0.1573E+00  0.7245E+00
  19.7999992  0.2109E+00  0.6991E+00
  20.0000000  0.2432E+00  0.7254E+00
  20.2000008  0.1769E+00  0.6979E+00
  20.3999996  0.2145E+00  0.6150E+00
  20.6000004  0.2798E+00  0.6051E+00
  20.7999992  0.2700E+00  0.6401E+00
  21.0000000  0.2352E+00  0.5832E+00
  21.2000008  0.2864E+00  0.5391E+00
  21.3999996  0.3082E+00  0.5510E+00
  21.6000004  0.2893E+00  0.5434E+00
  21.7999992  0.2978E+00  0.4872E+00
  22.0000000  0.3352E+00  0.4763E+00
  22.1999989  0.3430E+00  0.4761E+00
  22.3999996  0.3422E+00  0.4509E+00
  22.6000004  0.3780E+00  0.4320E+00
  22.7999992  0.3809E+00  0.4460E+00
  23.0000000  0.3718E+00  0.4174E+00
  23.2000008  0.4079E+00  0.3985E+00
  23.3999996  0.4095E+00  0.4149E+00
  23.5999985  0.3958E+00  0.3863E+00
  23.8000011  0.4284E+00  0.3569E+00
  24.0000000  0.4595E+00  0.3691E+00
  24.1999989  0.4507E+00  0.3764E+00
  24.3999996  0.4722E+00  0.3610E+00
  24.6000004  0.4911E+00  0.4009E+00
  24.7999992  0.4522E+00  0.4189E+00
  25.0000000  0.4095E+00  0.4136E+00
  25.1999989  0.3630E+00  0.3802E+00
  25.3999996  0.3505E+00  0.3034E+00
  25.6000004  0.3831E+00  0.2514E+00
  25.7999992  0.4112E+00  0.2234E+00
  26.0000000  0.4513E+00  0.1934E+00
  26.2000008  0.4984E+00  0.2006E+00
  26.3999996  0.5038E+00  0.2158E+00
  26.5999985  0.5149E+00  0.2131E+00
  26.8000011  0.5163E+00  0.2174E+00
  27.0000000  0.5138E+00  0.1989E+00
  27.1999989  0.5364E+00  0.1855E+00
  27.4000015  0.5467E+00  0.1915E+00
  27.6000004  0.5508E+00  0.1842E+00
  27.7999992  0.5559E+00  0.1777E+00
  28.0000000  0.5638E+00  0.1643E+00
  28.1999989  0.5794E+00  0.1548E+00
  28.3999977  0.5967E+00  0.1466E+00
  28.6000004  0.6220E+00  0.1494E+00
  28.8000011  0.6305E+00  0.1627E+00
  29.0000000  0.6373E+00  0.1679E+00
  29.2000008  0.6370E+00  0.1768E+00
  29.3999996  0.6335E+00  0.1714E+00
  29.5999985  0.6460E+00  0.1697E+00
  29.7999992  0.6436E+00  0.1722E+00
  30.0000019  0.6612E+00  0.1708E+00
  30.2000008  0.6615E+00  0.1917E+00
  30.3999996  0.6553E+00  0.2034E+00
  30.6000004  0.6252E+00  0.2205E+00
  30.7999992  0.5882E+00  0.1887E+00
  31.0000000  0.5954E+00  0.1526E+00
  31.1999989  0.6039E+00  0.1364E+00
  31.3999977  0.6177E+00  0.1174E+00
  31.6000004  0.6323E+00  0.1147E+00
  31.8000011  0.6373E+00  0.1070E+00
  32.0000000  0.6498E+00  0.1006E+00
  32.2000008  0.6562E+00  0.9980E-01
  32.3999977  0.6630E+00  0.9346E-01
  32.5999985  0.6687E+00  0.9267E-01
  32.7999992  0.6721E+00  0.8452E-01
  33.0000000  0.6802E+00  0.7813E-01
  33.2000008  0.6879E+00  0.7064E-01
  33.4000015  0.7001E+00  0.6512E-01
  33.5999985  0.7127E+00  0.6136E-01
  33.7999992  0.7277E+00  0.6202E-01
  34.0000000  0.7397E+00  0.6876E-01
  34.1999969  0.7444E+00  0.7627E-01
  34.4000015  0.7470E+00  0.7924E-01
  34.6000023  0.7497E+00  0.8392E-01
  34.7999992  0.7486E+00  0.8376E-01
  35.0000000  0.7510E+00  0.8057E-01
  35.2000008  0.7559E+00  0.7753E-01
  35.3999977  0.7651E+00  0.7598E-01
  35.5999985  0.7746E+00  0.7925E-01
  35.7999992  0.7808E+00  0.8796E-01
  36.0000000  0.7820E+00  0.9475E-01
  36.2000008  0.7808E+00  0.1026E+00
  36.4000015  0.7761E+00  0.1075E+00
  36.5999985  0.7687E+00  0.1082E+00
  36.7999992  0.7637E+00  0.1038E+00
  37.0000000  0.7625E+00  0.9847E-01
  37.1999969  0.7642E+00  0.9492E-01
  37.4000015  0.7638E+00  0.9097E-01
  37.6000023  0.7669E+00  0.8505E-01
  37.7999992  0.7741E+00  0.8262E-01
  38.0000000  0.7809E+00  0.8705E-01
  38.2000008  0.7780E+00  0.9407E-01
  38.3999977  0.7717E+00  0.9245E-01
  38.5999985  0.7696E+00  0.8908E-01
  38.8000031  0.7666E+00  0.8417E-01
  39.0000000  0.7674E+00  0.7559E-01
  39.2000008  0.7734E+00  0.7197E-01
  39.4000015  0.7739E+00  0.6944E-01
  39.5999985  0.7801E+00  0.6320E-01
  39.7999992  0.7850E+00  0.6547E-01
  40.0000000  0.7858E+00  0.6336E-01
